#  P(GPa)    T(K)     n_LS     n_HS
    0.00   4000.00  0.030030  0.969970
    0.10   4000.00  0.030030  0.969970
    0.20   4000.00  0.030030  0.969970
    0.30   4000.00  0.029029  0.970971
    0.40   4000.00  0.029029  0.970971
    0.50   4000.00  0.029029  0.970971
    0.60   4000.00  0.029029  0.970971
    0.70   4000.00  0.029029  0.970971
    0.80   4000.00  0.029029  0.970971
    0.90   4000.00  0.029029  0.970971
    1.00   4000.00  0.029029  0.970971
    1.10   4000.00  0.029029  0.970971
    1.20   4000.00  0.029029  0.970971
    1.30   4000.00  0.029029  0.970971
    1.40   4000.00  0.029029  0.970971
    1.50   4000.00  0.029029  0.970971
    1.60   4000.00  0.029029  0.970971
    1.70   4000.00  0.029029  0.970971
    1.80   4000.00  0.029029  0.970971
    1.90   4000.00  0.029029  0.970971
    2.00   4000.00  0.029029  0.970971
    2.10   4000.00  0.029029  0.970971
    2.20   4000.00  0.029029  0.970971
    2.30   4000.00  0.029029  0.970971
    2.40   4000.00  0.029029  0.970971
    2.50   4000.00  0.029029  0.970971
    2.60   4000.00  0.029029  0.970971
    2.70   4000.00  0.029029  0.970971
    2.80   4000.00  0.029029  0.970971
    2.90   4000.00  0.029029  0.970971
    3.00   4000.00  0.029029  0.970971
    3.10   4000.00  0.029029  0.970971
    3.20   4000.00  0.029029  0.970971
    3.30   4000.00  0.029029  0.970971
    3.40   4000.00  0.029029  0.970971
    3.50   4000.00  0.029029  0.970971
    3.60   4000.00  0.029029  0.970971
    3.70   4000.00  0.029029  0.970971
    3.80   4000.00  0.030030  0.969970
    3.90   4000.00  0.030030  0.969970
    4.00   4000.00  0.030030  0.969970
    4.10   4000.00  0.030030  0.969970
    4.20   4000.00  0.030030  0.969970
    4.30   4000.00  0.030030  0.969970
    4.40   4000.00  0.030030  0.969970
    4.50   4000.00  0.030030  0.969970
    4.60   4000.00  0.030030  0.969970
    4.70   4000.00  0.030030  0.969970
    4.80   4000.00  0.030030  0.969970
    4.90   4000.00  0.030030  0.969970
    5.00   4000.00  0.030030  0.969970
    5.10   4000.00  0.030030  0.969970
    5.20   4000.00  0.030030  0.969970
    5.30   4000.00  0.030030  0.969970
    5.40   4000.00  0.030030  0.969970
    5.50   4000.00  0.030030  0.969970
    5.60   4000.00  0.030030  0.969970
    5.70   4000.00  0.030030  0.969970
    5.80   4000.00  0.030030  0.969970
    5.90   4000.00  0.030030  0.969970
    6.00   4000.00  0.030030  0.969970
    6.10   4000.00  0.030030  0.969970
    6.20   4000.00  0.030030  0.969970
    6.30   4000.00  0.030030  0.969970
    6.40   4000.00  0.030030  0.969970
    6.50   4000.00  0.030030  0.969970
    6.60   4000.00  0.030030  0.969970
    6.70   4000.00  0.030030  0.969970
    6.80   4000.00  0.030030  0.969970
    6.90   4000.00  0.030030  0.969970
    7.00   4000.00  0.030030  0.969970
    7.10   4000.00  0.030030  0.969970
    7.20   4000.00  0.030030  0.969970
    7.30   4000.00  0.030030  0.969970
    7.40   4000.00  0.030030  0.969970
    7.50   4000.00  0.030030  0.969970
    7.60   4000.00  0.030030  0.969970
    7.70   4000.00  0.030030  0.969970
    7.80   4000.00  0.030030  0.969970
    7.90   4000.00  0.030030  0.969970
    8.00   4000.00  0.030030  0.969970
    8.10   4000.00  0.030030  0.969970
    8.20   4000.00  0.031031  0.968969
    8.30   4000.00  0.031031  0.968969
    8.40   4000.00  0.031031  0.968969
    8.50   4000.00  0.031031  0.968969
    8.60   4000.00  0.031031  0.968969
    8.70   4000.00  0.031031  0.968969
    8.80   4000.00  0.031031  0.968969
    8.90   4000.00  0.031031  0.968969
    9.00   4000.00  0.031031  0.968969
    9.10   4000.00  0.031031  0.968969
    9.20   4000.00  0.031031  0.968969
    9.30   4000.00  0.031031  0.968969
    9.40   4000.00  0.031031  0.968969
    9.50   4000.00  0.031031  0.968969
    9.60   4000.00  0.031031  0.968969
    9.70   4000.00  0.031031  0.968969
    9.80   4000.00  0.031031  0.968969
    9.90   4000.00  0.031031  0.968969
   10.00   4000.00  0.031031  0.968969
   10.10   4000.00  0.031031  0.968969
   10.20   4000.00  0.031031  0.968969
   10.30   4000.00  0.031031  0.968969
   10.40   4000.00  0.031031  0.968969
   10.50   4000.00  0.031031  0.968969
   10.60   4000.00  0.031031  0.968969
   10.70   4000.00  0.031031  0.968969
   10.80   4000.00  0.031031  0.968969
   10.90   4000.00  0.032032  0.967968
   11.00   4000.00  0.032032  0.967968
   11.10   4000.00  0.032032  0.967968
   11.20   4000.00  0.032032  0.967968
   11.30   4000.00  0.032032  0.967968
   11.40   4000.00  0.032032  0.967968
   11.50   4000.00  0.032032  0.967968
   11.60   4000.00  0.032032  0.967968
   11.70   4000.00  0.032032  0.967968
   11.80   4000.00  0.032032  0.967968
   11.90   4000.00  0.032032  0.967968
   12.00   4000.00  0.032032  0.967968
   12.10   4000.00  0.032032  0.967968
   12.20   4000.00  0.032032  0.967968
   12.30   4000.00  0.032032  0.967968
   12.40   4000.00  0.032032  0.967968
   12.50   4000.00  0.032032  0.967968
   12.60   4000.00  0.032032  0.967968
   12.70   4000.00  0.032032  0.967968
   12.80   4000.00  0.032032  0.967968
   12.90   4000.00  0.032032  0.967968
   13.00   4000.00  0.032032  0.967968
   13.10   4000.00  0.033033  0.966967
   13.20   4000.00  0.033033  0.966967
   13.30   4000.00  0.033033  0.966967
   13.40   4000.00  0.033033  0.966967
   13.50   4000.00  0.033033  0.966967
   13.60   4000.00  0.033033  0.966967
   13.70   4000.00  0.033033  0.966967
   13.80   4000.00  0.033033  0.966967
   13.90   4000.00  0.033033  0.966967
   14.00   4000.00  0.033033  0.966967
   14.10   4000.00  0.033033  0.966967
   14.20   4000.00  0.033033  0.966967
   14.30   4000.00  0.033033  0.966967
   14.40   4000.00  0.033033  0.966967
   14.50   4000.00  0.033033  0.966967
   14.60   4000.00  0.033033  0.966967
   14.70   4000.00  0.033033  0.966967
   14.80   4000.00  0.033033  0.966967
   14.90   4000.00  0.033033  0.966967
   15.00   4000.00  0.034034  0.965966
   15.10   4000.00  0.034034  0.965966
   15.20   4000.00  0.034034  0.965966
   15.30   4000.00  0.034034  0.965966
   15.40   4000.00  0.034034  0.965966
   15.50   4000.00  0.034034  0.965966
   15.60   4000.00  0.034034  0.965966
   15.70   4000.00  0.034034  0.965966
   15.80   4000.00  0.034034  0.965966
   15.90   4000.00  0.034034  0.965966
   16.00   4000.00  0.034034  0.965966
   16.10   4000.00  0.034034  0.965966
   16.20   4000.00  0.034034  0.965966
   16.30   4000.00  0.034034  0.965966
   16.40   4000.00  0.034034  0.965966
   16.50   4000.00  0.034034  0.965966
   16.60   4000.00  0.034034  0.965966
   16.70   4000.00  0.035035  0.964965
   16.80   4000.00  0.035035  0.964965
   16.90   4000.00  0.035035  0.964965
   17.00   4000.00  0.035035  0.964965
   17.10   4000.00  0.035035  0.964965
   17.20   4000.00  0.035035  0.964965
   17.30   4000.00  0.035035  0.964965
   17.40   4000.00  0.035035  0.964965
   17.50   4000.00  0.035035  0.964965
   17.60   4000.00  0.035035  0.964965
   17.70   4000.00  0.035035  0.964965
   17.80   4000.00  0.035035  0.964965
   17.90   4000.00  0.035035  0.964965
   18.00   4000.00  0.035035  0.964965
   18.10   4000.00  0.035035  0.964965
   18.20   4000.00  0.035035  0.964965
   18.30   4000.00  0.036036  0.963964
   18.40   4000.00  0.036036  0.963964
   18.50   4000.00  0.036036  0.963964
   18.60   4000.00  0.036036  0.963964
   18.70   4000.00  0.036036  0.963964
   18.80   4000.00  0.036036  0.963964
   18.90   4000.00  0.036036  0.963964
   19.00   4000.00  0.036036  0.963964
   19.10   4000.00  0.036036  0.963964
   19.20   4000.00  0.036036  0.963964
   19.30   4000.00  0.036036  0.963964
   19.40   4000.00  0.036036  0.963964
   19.50   4000.00  0.036036  0.963964
   19.60   4000.00  0.036036  0.963964
   19.70   4000.00  0.037037  0.962963
   19.80   4000.00  0.037037  0.962963
   19.90   4000.00  0.037037  0.962963
   20.00   4000.00  0.037037  0.962963
   20.10   4000.00  0.037037  0.962963
   20.20   4000.00  0.037037  0.962963
   20.30   4000.00  0.037037  0.962963
   20.40   4000.00  0.037037  0.962963
   20.50   4000.00  0.037037  0.962963
   20.60   4000.00  0.037037  0.962963
   20.70   4000.00  0.037037  0.962963
   20.80   4000.00  0.037037  0.962963
   20.90   4000.00  0.037037  0.962963
   21.00   4000.00  0.038038  0.961962
   21.10   4000.00  0.038038  0.961962
   21.20   4000.00  0.038038  0.961962
   21.30   4000.00  0.038038  0.961962
   21.40   4000.00  0.038038  0.961962
   21.50   4000.00  0.038038  0.961962
   21.60   4000.00  0.038038  0.961962
   21.70   4000.00  0.038038  0.961962
   21.80   4000.00  0.038038  0.961962
   21.90   4000.00  0.038038  0.961962
   22.00   4000.00  0.038038  0.961962
   22.10   4000.00  0.038038  0.961962
   22.20   4000.00  0.039039  0.960961
   22.30   4000.00  0.039039  0.960961
   22.40   4000.00  0.039039  0.960961
   22.50   4000.00  0.039039  0.960961
   22.60   4000.00  0.039039  0.960961
   22.70   4000.00  0.039039  0.960961
   22.80   4000.00  0.039039  0.960961
   22.90   4000.00  0.039039  0.960961
   23.00   4000.00  0.039039  0.960961
   23.10   4000.00  0.039039  0.960961
   23.20   4000.00  0.039039  0.960961
   23.30   4000.00  0.039039  0.960961
   23.40   4000.00  0.040040  0.959960
   23.50   4000.00  0.040040  0.959960
   23.60   4000.00  0.040040  0.959960
   23.70   4000.00  0.040040  0.959960
   23.80   4000.00  0.040040  0.959960
   23.90   4000.00  0.040040  0.959960
   24.00   4000.00  0.040040  0.959960
   24.10   4000.00  0.040040  0.959960
   24.20   4000.00  0.040040  0.959960
   24.30   4000.00  0.040040  0.959960
   24.40   4000.00  0.040040  0.959960
   24.50   4000.00  0.041041  0.958959
   24.60   4000.00  0.041041  0.958959
   24.70   4000.00  0.041041  0.958959
   24.80   4000.00  0.041041  0.958959
   24.90   4000.00  0.041041  0.958959
   25.00   4000.00  0.041041  0.958959
   25.10   4000.00  0.041041  0.958959
   25.20   4000.00  0.041041  0.958959
   25.30   4000.00  0.041041  0.958959
   25.40   4000.00  0.041041  0.958959
   25.50   4000.00  0.041041  0.958959
   25.60   4000.00  0.042042  0.957958
   25.70   4000.00  0.042042  0.957958
   25.80   4000.00  0.042042  0.957958
   25.90   4000.00  0.042042  0.957958
   26.00   4000.00  0.042042  0.957958
   26.10   4000.00  0.042042  0.957958
   26.20   4000.00  0.042042  0.957958
   26.30   4000.00  0.042042  0.957958
   26.40   4000.00  0.042042  0.957958
   26.50   4000.00  0.042042  0.957958
   26.60   4000.00  0.043043  0.956957
   26.70   4000.00  0.043043  0.956957
   26.80   4000.00  0.043043  0.956957
   26.90   4000.00  0.043043  0.956957
   27.00   4000.00  0.043043  0.956957
   27.10   4000.00  0.043043  0.956957
   27.20   4000.00  0.043043  0.956957
   27.30   4000.00  0.043043  0.956957
   27.40   4000.00  0.043043  0.956957
   27.50   4000.00  0.044044  0.955956
   27.60   4000.00  0.044044  0.955956
   27.70   4000.00  0.044044  0.955956
   27.80   4000.00  0.044044  0.955956
   27.90   4000.00  0.044044  0.955956
   28.00   4000.00  0.044044  0.955956
   28.10   4000.00  0.044044  0.955956
   28.20   4000.00  0.044044  0.955956
   28.30   4000.00  0.044044  0.955956
   28.40   4000.00  0.044044  0.955956
   28.50   4000.00  0.045045  0.954955
   28.60   4000.00  0.045045  0.954955
   28.70   4000.00  0.045045  0.954955
   28.80   4000.00  0.045045  0.954955
   28.90   4000.00  0.045045  0.954955
   29.00   4000.00  0.045045  0.954955
   29.10   4000.00  0.045045  0.954955
   29.20   4000.00  0.045045  0.954955
   29.30   4000.00  0.046046  0.953954
   29.40   4000.00  0.046046  0.953954
   29.50   4000.00  0.046046  0.953954
   29.60   4000.00  0.046046  0.953954
   29.70   4000.00  0.046046  0.953954
   29.80   4000.00  0.046046  0.953954
   29.90   4000.00  0.046046  0.953954
   30.00   4000.00  0.046046  0.953954
   30.10   4000.00  0.046046  0.953954
   30.20   4000.00  0.047047  0.952953
   30.30   4000.00  0.047047  0.952953
   30.40   4000.00  0.047047  0.952953
   30.50   4000.00  0.047047  0.952953
   30.60   4000.00  0.047047  0.952953
   30.70   4000.00  0.047047  0.952953
   30.80   4000.00  0.047047  0.952953
   30.90   4000.00  0.047047  0.952953
   31.00   4000.00  0.048048  0.951952
   31.10   4000.00  0.048048  0.951952
   31.20   4000.00  0.048048  0.951952
   31.30   4000.00  0.048048  0.951952
   31.40   4000.00  0.048048  0.951952
   31.50   4000.00  0.048048  0.951952
   31.60   4000.00  0.048048  0.951952
   31.70   4000.00  0.048048  0.951952
   31.80   4000.00  0.049049  0.950951
   31.90   4000.00  0.049049  0.950951
   32.00   4000.00  0.049049  0.950951
   32.10   4000.00  0.049049  0.950951
   32.20   4000.00  0.049049  0.950951
   32.30   4000.00  0.049049  0.950951
   32.40   4000.00  0.049049  0.950951
   32.50   4000.00  0.049049  0.950951
   32.60   4000.00  0.050050  0.949950
   32.70   4000.00  0.050050  0.949950
   32.80   4000.00  0.050050  0.949950
   32.90   4000.00  0.050050  0.949950
   33.00   4000.00  0.050050  0.949950
   33.10   4000.00  0.050050  0.949950
   33.20   4000.00  0.050050  0.949950
   33.30   4000.00  0.051051  0.948949
   33.40   4000.00  0.051051  0.948949
   33.50   4000.00  0.051051  0.948949
   33.60   4000.00  0.051051  0.948949
   33.70   4000.00  0.051051  0.948949
   33.80   4000.00  0.051051  0.948949
   33.90   4000.00  0.051051  0.948949
   34.00   4000.00  0.052052  0.947948
   34.10   4000.00  0.052052  0.947948
   34.20   4000.00  0.052052  0.947948
   34.30   4000.00  0.052052  0.947948
   34.40   4000.00  0.052052  0.947948
   34.50   4000.00  0.052052  0.947948
   34.60   4000.00  0.052052  0.947948
   34.70   4000.00  0.053053  0.946947
   34.80   4000.00  0.053053  0.946947
   34.90   4000.00  0.053053  0.946947
   35.00   4000.00  0.053053  0.946947
   35.10   4000.00  0.053053  0.946947
   35.20   4000.00  0.053053  0.946947
   35.30   4000.00  0.053053  0.946947
   35.40   4000.00  0.054054  0.945946
   35.50   4000.00  0.054054  0.945946
   35.60   4000.00  0.054054  0.945946
   35.70   4000.00  0.054054  0.945946
   35.80   4000.00  0.054054  0.945946
   35.90   4000.00  0.054054  0.945946
   36.00   4000.00  0.055055  0.944945
   36.10   4000.00  0.055055  0.944945
   36.20   4000.00  0.055055  0.944945
   36.30   4000.00  0.055055  0.944945
   36.40   4000.00  0.055055  0.944945
   36.50   4000.00  0.055055  0.944945
   36.60   4000.00  0.055055  0.944945
   36.70   4000.00  0.056056  0.943944
   36.80   4000.00  0.056056  0.943944
   36.90   4000.00  0.056056  0.943944
   37.00   4000.00  0.056056  0.943944
   37.10   4000.00  0.056056  0.943944
   37.20   4000.00  0.056056  0.943944
   37.30   4000.00  0.057057  0.942943
   37.40   4000.00  0.057057  0.942943
   37.50   4000.00  0.057057  0.942943
   37.60   4000.00  0.057057  0.942943
   37.70   4000.00  0.057057  0.942943
   37.80   4000.00  0.057057  0.942943
   37.90   4000.00  0.058058  0.941942
   38.00   4000.00  0.058058  0.941942
   38.10   4000.00  0.058058  0.941942
   38.20   4000.00  0.058058  0.941942
   38.30   4000.00  0.058058  0.941942
   38.40   4000.00  0.058058  0.941942
   38.50   4000.00  0.059059  0.940941
   38.60   4000.00  0.059059  0.940941
   38.70   4000.00  0.059059  0.940941
   38.80   4000.00  0.059059  0.940941
   38.90   4000.00  0.059059  0.940941
   39.00   4000.00  0.060060  0.939940
   39.10   4000.00  0.060060  0.939940
   39.20   4000.00  0.060060  0.939940
   39.30   4000.00  0.060060  0.939940
   39.40   4000.00  0.060060  0.939940
   39.50   4000.00  0.060060  0.939940
   39.60   4000.00  0.061061  0.938939
   39.70   4000.00  0.061061  0.938939
   39.80   4000.00  0.061061  0.938939
   39.90   4000.00  0.061061  0.938939
   40.00   4000.00  0.061061  0.938939
   40.10   4000.00  0.061061  0.938939
   40.20   4000.00  0.062062  0.937938
   40.30   4000.00  0.062062  0.937938
   40.40   4000.00  0.062062  0.937938
   40.50   4000.00  0.062062  0.937938
   40.60   4000.00  0.062062  0.937938
   40.70   4000.00  0.063063  0.936937
   40.80   4000.00  0.063063  0.936937
   40.90   4000.00  0.063063  0.936937
   41.00   4000.00  0.063063  0.936937
   41.10   4000.00  0.063063  0.936937
   41.20   4000.00  0.064064  0.935936
   41.30   4000.00  0.064064  0.935936
   41.40   4000.00  0.064064  0.935936
   41.50   4000.00  0.064064  0.935936
   41.60   4000.00  0.064064  0.935936
   41.70   4000.00  0.065065  0.934935
   41.80   4000.00  0.065065  0.934935
   41.90   4000.00  0.065065  0.934935
   42.00   4000.00  0.065065  0.934935
   42.10   4000.00  0.065065  0.934935
   42.20   4000.00  0.066066  0.933934
   42.30   4000.00  0.066066  0.933934
   42.40   4000.00  0.066066  0.933934
   42.50   4000.00  0.066066  0.933934
   42.60   4000.00  0.066066  0.933934
   42.70   4000.00  0.067067  0.932933
   42.80   4000.00  0.067067  0.932933
   42.90   4000.00  0.067067  0.932933
   43.00   4000.00  0.067067  0.932933
   43.10   4000.00  0.067067  0.932933
   43.20   4000.00  0.068068  0.931932
   43.30   4000.00  0.068068  0.931932
   43.40   4000.00  0.068068  0.931932
   43.50   4000.00  0.068068  0.931932
   43.60   4000.00  0.068068  0.931932
   43.70   4000.00  0.069069  0.930931
   43.80   4000.00  0.069069  0.930931
   43.90   4000.00  0.069069  0.930931
   44.00   4000.00  0.069069  0.930931
   44.10   4000.00  0.070070  0.929930
   44.20   4000.00  0.070070  0.929930
   44.30   4000.00  0.070070  0.929930
   44.40   4000.00  0.070070  0.929930
   44.50   4000.00  0.070070  0.929930
   44.60   4000.00  0.071071  0.928929
   44.70   4000.00  0.071071  0.928929
   44.80   4000.00  0.071071  0.928929
   44.90   4000.00  0.071071  0.928929
   45.00   4000.00  0.072072  0.927928
   45.10   4000.00  0.072072  0.927928
   45.20   4000.00  0.072072  0.927928
   45.30   4000.00  0.072072  0.927928
   45.40   4000.00  0.072072  0.927928
   45.50   4000.00  0.073073  0.926927
   45.60   4000.00  0.073073  0.926927
   45.70   4000.00  0.073073  0.926927
   45.80   4000.00  0.073073  0.926927
   45.90   4000.00  0.074074  0.925926
   46.00   4000.00  0.074074  0.925926
   46.10   4000.00  0.074074  0.925926
   46.20   4000.00  0.074074  0.925926
   46.30   4000.00  0.075075  0.924925
   46.40   4000.00  0.075075  0.924925
   46.50   4000.00  0.075075  0.924925
   46.60   4000.00  0.075075  0.924925
   46.70   4000.00  0.076076  0.923924
   46.80   4000.00  0.076076  0.923924
   46.90   4000.00  0.076076  0.923924
   47.00   4000.00  0.076076  0.923924
   47.10   4000.00  0.077077  0.922923
   47.20   4000.00  0.077077  0.922923
   47.30   4000.00  0.077077  0.922923
   47.40   4000.00  0.077077  0.922923
   47.50   4000.00  0.078078  0.921922
   47.60   4000.00  0.078078  0.921922
   47.70   4000.00  0.078078  0.921922
   47.80   4000.00  0.078078  0.921922
   47.90   4000.00  0.079079  0.920921
   48.00   4000.00  0.079079  0.920921
   48.10   4000.00  0.079079  0.920921
   48.20   4000.00  0.079079  0.920921
   48.30   4000.00  0.080080  0.919920
   48.40   4000.00  0.080080  0.919920
   48.50   4000.00  0.080080  0.919920
   48.60   4000.00  0.080080  0.919920
   48.70   4000.00  0.081081  0.918919
   48.80   4000.00  0.081081  0.918919
   48.90   4000.00  0.081081  0.918919
   49.00   4000.00  0.081081  0.918919
   49.10   4000.00  0.082082  0.917918
   49.20   4000.00  0.082082  0.917918
   49.30   4000.00  0.082082  0.917918
   49.40   4000.00  0.083083  0.916917
   49.50   4000.00  0.083083  0.916917
   49.60   4000.00  0.083083  0.916917
   49.70   4000.00  0.083083  0.916917
   49.80   4000.00  0.084084  0.915916
   49.90   4000.00  0.084084  0.915916
   50.00   4000.00  0.084084  0.915916
   50.10   4000.00  0.085085  0.914915
   50.20   4000.00  0.085085  0.914915
   50.30   4000.00  0.085085  0.914915
   50.40   4000.00  0.085085  0.914915
   50.50   4000.00  0.086086  0.913914
   50.60   4000.00  0.086086  0.913914
   50.70   4000.00  0.086086  0.913914
   50.80   4000.00  0.087087  0.912913
   50.90   4000.00  0.087087  0.912913
   51.00   4000.00  0.087087  0.912913
   51.10   4000.00  0.087087  0.912913
   51.20   4000.00  0.088088  0.911912
   51.30   4000.00  0.088088  0.911912
   51.40   4000.00  0.088088  0.911912
   51.50   4000.00  0.089089  0.910911
   51.60   4000.00  0.089089  0.910911
   51.70   4000.00  0.089089  0.910911
   51.80   4000.00  0.089089  0.910911
   51.90   4000.00  0.090090  0.909910
   52.00   4000.00  0.090090  0.909910
   52.10   4000.00  0.090090  0.909910
   52.20   4000.00  0.091091  0.908909
   52.30   4000.00  0.091091  0.908909
   52.40   4000.00  0.091091  0.908909
   52.50   4000.00  0.092092  0.907908
   52.60   4000.00  0.092092  0.907908
   52.70   4000.00  0.092092  0.907908
   52.80   4000.00  0.093093  0.906907
   52.90   4000.00  0.093093  0.906907
   53.00   4000.00  0.093093  0.906907
   53.10   4000.00  0.094094  0.905906
   53.20   4000.00  0.094094  0.905906
   53.30   4000.00  0.094094  0.905906
   53.40   4000.00  0.094094  0.905906
   53.50   4000.00  0.095095  0.904905
   53.60   4000.00  0.095095  0.904905
   53.70   4000.00  0.095095  0.904905
   53.80   4000.00  0.096096  0.903904
   53.90   4000.00  0.096096  0.903904
   54.00   4000.00  0.096096  0.903904
   54.10   4000.00  0.097097  0.902903
   54.20   4000.00  0.097097  0.902903
   54.30   4000.00  0.097097  0.902903
   54.40   4000.00  0.098098  0.901902
   54.50   4000.00  0.098098  0.901902
   54.60   4000.00  0.098098  0.901902
   54.70   4000.00  0.099099  0.900901
   54.80   4000.00  0.099099  0.900901
   54.90   4000.00  0.099099  0.900901
   55.00   4000.00  0.100100  0.899900
   55.10   4000.00  0.100100  0.899900
   55.20   4000.00  0.101101  0.898899
   55.30   4000.00  0.101101  0.898899
   55.40   4000.00  0.101101  0.898899
   55.50   4000.00  0.102102  0.897898
   55.60   4000.00  0.102102  0.897898
   55.70   4000.00  0.102102  0.897898
   55.80   4000.00  0.103103  0.896897
   55.90   4000.00  0.103103  0.896897
   56.00   4000.00  0.103103  0.896897
   56.10   4000.00  0.104104  0.895896
   56.20   4000.00  0.104104  0.895896
   56.30   4000.00  0.104104  0.895896
   56.40   4000.00  0.105105  0.894895
   56.50   4000.00  0.105105  0.894895
   56.60   4000.00  0.106106  0.893894
   56.70   4000.00  0.106106  0.893894
   56.80   4000.00  0.106106  0.893894
   56.90   4000.00  0.107107  0.892893
   57.00   4000.00  0.107107  0.892893
   57.10   4000.00  0.107107  0.892893
   57.20   4000.00  0.108108  0.891892
   57.30   4000.00  0.108108  0.891892
   57.40   4000.00  0.109109  0.890891
   57.50   4000.00  0.109109  0.890891
   57.60   4000.00  0.109109  0.890891
   57.70   4000.00  0.110110  0.889890
   57.80   4000.00  0.110110  0.889890
   57.90   4000.00  0.110110  0.889890
   58.00   4000.00  0.111111  0.888889
   58.10   4000.00  0.111111  0.888889
   58.20   4000.00  0.112112  0.887888
   58.30   4000.00  0.112112  0.887888
   58.40   4000.00  0.112112  0.887888
   58.50   4000.00  0.113113  0.886887
   58.60   4000.00  0.113113  0.886887
   58.70   4000.00  0.114114  0.885886
   58.80   4000.00  0.114114  0.885886
   58.90   4000.00  0.114114  0.885886
   59.00   4000.00  0.115115  0.884885
   59.10   4000.00  0.115115  0.884885
   59.20   4000.00  0.116116  0.883884
   59.30   4000.00  0.116116  0.883884
   59.40   4000.00  0.116116  0.883884
   59.50   4000.00  0.117117  0.882883
   59.60   4000.00  0.117117  0.882883
   59.70   4000.00  0.118118  0.881882
   59.80   4000.00  0.118118  0.881882
   59.90   4000.00  0.119119  0.880881
   60.00   4000.00  0.119119  0.880881
   60.10   4000.00  0.119119  0.880881
   60.20   4000.00  0.120120  0.879880
   60.30   4000.00  0.120120  0.879880
   60.40   4000.00  0.121121  0.878879
   60.50   4000.00  0.121121  0.878879
   60.60   4000.00  0.122122  0.877878
   60.70   4000.00  0.122122  0.877878
   60.80   4000.00  0.122122  0.877878
   60.90   4000.00  0.123123  0.876877
   61.00   4000.00  0.123123  0.876877
   61.10   4000.00  0.124124  0.875876
   61.20   4000.00  0.124124  0.875876
   61.30   4000.00  0.125125  0.874875
   61.40   4000.00  0.125125  0.874875
   61.50   4000.00  0.126126  0.873874
   61.60   4000.00  0.126126  0.873874
   61.70   4000.00  0.126126  0.873874
   61.80   4000.00  0.127127  0.872873
   61.90   4000.00  0.127127  0.872873
   62.00   4000.00  0.128128  0.871872
   62.10   4000.00  0.128128  0.871872
   62.20   4000.00  0.129129  0.870871
   62.30   4000.00  0.129129  0.870871
   62.40   4000.00  0.130130  0.869870
   62.50   4000.00  0.130130  0.869870
   62.60   4000.00  0.131131  0.868869
   62.70   4000.00  0.131131  0.868869
   62.80   4000.00  0.131131  0.868869
   62.90   4000.00  0.132132  0.867868
   63.00   4000.00  0.132132  0.867868
   63.10   4000.00  0.133133  0.866867
   63.20   4000.00  0.133133  0.866867
   63.30   4000.00  0.134134  0.865866
   63.40   4000.00  0.134134  0.865866
   63.50   4000.00  0.135135  0.864865
   63.60   4000.00  0.135135  0.864865
   63.70   4000.00  0.136136  0.863864
   63.80   4000.00  0.136136  0.863864
   63.90   4000.00  0.137137  0.862863
   64.00   4000.00  0.137137  0.862863
   64.10   4000.00  0.138138  0.861862
   64.20   4000.00  0.138138  0.861862
   64.30   4000.00  0.139139  0.860861
   64.40   4000.00  0.139139  0.860861
   64.50   4000.00  0.140140  0.859860
   64.60   4000.00  0.140140  0.859860
   64.70   4000.00  0.141141  0.858859
   64.80   4000.00  0.141141  0.858859
   64.90   4000.00  0.142142  0.857858
   65.00   4000.00  0.142142  0.857858
   65.10   4000.00  0.143143  0.856857
   65.20   4000.00  0.143143  0.856857
   65.30   4000.00  0.144144  0.855856
   65.40   4000.00  0.144144  0.855856
   65.50   4000.00  0.145145  0.854855
   65.60   4000.00  0.145145  0.854855
   65.70   4000.00  0.146146  0.853854
   65.80   4000.00  0.147147  0.852853
   65.90   4000.00  0.147147  0.852853
   66.00   4000.00  0.148148  0.851852
   66.10   4000.00  0.148148  0.851852
   66.20   4000.00  0.149149  0.850851
   66.30   4000.00  0.149149  0.850851
   66.40   4000.00  0.150150  0.849850
   66.50   4000.00  0.150150  0.849850
   66.60   4000.00  0.151151  0.848849
   66.70   4000.00  0.151151  0.848849
   66.80   4000.00  0.152152  0.847848
   66.90   4000.00  0.152152  0.847848
   67.00   4000.00  0.153153  0.846847
   67.10   4000.00  0.154154  0.845846
   67.20   4000.00  0.154154  0.845846
   67.30   4000.00  0.155155  0.844845
   67.40   4000.00  0.155155  0.844845
   67.50   4000.00  0.156156  0.843844
   67.60   4000.00  0.156156  0.843844
   67.70   4000.00  0.157157  0.842843
   67.80   4000.00  0.158158  0.841842
   67.90   4000.00  0.158158  0.841842
   68.00   4000.00  0.159159  0.840841
   68.10   4000.00  0.159159  0.840841
   68.20   4000.00  0.160160  0.839840
   68.30   4000.00  0.160160  0.839840
   68.40   4000.00  0.161161  0.838839
   68.50   4000.00  0.162162  0.837838
   68.60   4000.00  0.162162  0.837838
   68.70   4000.00  0.163163  0.836837
   68.80   4000.00  0.163163  0.836837
   68.90   4000.00  0.164164  0.835836
   69.00   4000.00  0.165165  0.834835
   69.10   4000.00  0.165165  0.834835
   69.20   4000.00  0.166166  0.833834
   69.30   4000.00  0.166166  0.833834
   69.40   4000.00  0.167167  0.832833
   69.50   4000.00  0.168168  0.831832
   69.60   4000.00  0.168168  0.831832
   69.70   4000.00  0.169169  0.830831
   69.80   4000.00  0.169169  0.830831
   69.90   4000.00  0.170170  0.829830
   70.00   4000.00  0.171171  0.828829
   70.10   4000.00  0.171171  0.828829
   70.20   4000.00  0.172172  0.827828
   70.30   4000.00  0.173173  0.826827
   70.40   4000.00  0.173173  0.826827
   70.50   4000.00  0.174174  0.825826
   70.60   4000.00  0.174174  0.825826
   70.70   4000.00  0.175175  0.824825
   70.80   4000.00  0.176176  0.823824
   70.90   4000.00  0.176176  0.823824
   71.00   4000.00  0.177177  0.822823
   71.10   4000.00  0.178178  0.821822
   71.20   4000.00  0.178178  0.821822
   71.30   4000.00  0.179179  0.820821
   71.40   4000.00  0.180180  0.819820
   71.50   4000.00  0.180180  0.819820
   71.60   4000.00  0.181181  0.818819
   71.70   4000.00  0.182182  0.817818
   71.80   4000.00  0.182182  0.817818
   71.90   4000.00  0.183183  0.816817
   72.00   4000.00  0.184184  0.815816
   72.10   4000.00  0.184184  0.815816
   72.20   4000.00  0.185185  0.814815
   72.30   4000.00  0.186186  0.813814
   72.40   4000.00  0.186186  0.813814
   72.50   4000.00  0.187187  0.812813
   72.60   4000.00  0.188188  0.811812
   72.70   4000.00  0.188188  0.811812
   72.80   4000.00  0.189189  0.810811
   72.90   4000.00  0.190190  0.809810
   73.00   4000.00  0.190190  0.809810
   73.10   4000.00  0.191191  0.808809
   73.20   4000.00  0.192192  0.807808
   73.30   4000.00  0.192192  0.807808
   73.40   4000.00  0.193193  0.806807
   73.50   4000.00  0.194194  0.805806
   73.60   4000.00  0.195195  0.804805
   73.70   4000.00  0.195195  0.804805
   73.80   4000.00  0.196196  0.803804
   73.90   4000.00  0.197197  0.802803
   74.00   4000.00  0.197197  0.802803
   74.10   4000.00  0.198198  0.801802
   74.20   4000.00  0.199199  0.800801
   74.30   4000.00  0.200200  0.799800
   74.40   4000.00  0.200200  0.799800
   74.50   4000.00  0.201201  0.798799
   74.60   4000.00  0.202202  0.797798
   74.70   4000.00  0.203203  0.796797
   74.80   4000.00  0.203203  0.796797
   74.90   4000.00  0.204204  0.795796
   75.00   4000.00  0.205205  0.794795
   75.10   4000.00  0.205205  0.794795
   75.20   4000.00  0.206206  0.793794
   75.30   4000.00  0.207207  0.792793
   75.40   4000.00  0.208208  0.791792
   75.50   4000.00  0.208208  0.791792
   75.60   4000.00  0.209209  0.790791
   75.70   4000.00  0.210210  0.789790
   75.80   4000.00  0.211211  0.788789
   75.90   4000.00  0.211211  0.788789
   76.00   4000.00  0.212212  0.787788
   76.10   4000.00  0.213213  0.786787
   76.20   4000.00  0.214214  0.785786
   76.30   4000.00  0.215215  0.784785
   76.40   4000.00  0.215215  0.784785
   76.50   4000.00  0.216216  0.783784
   76.60   4000.00  0.217217  0.782783
   76.70   4000.00  0.218218  0.781782
   76.80   4000.00  0.218218  0.781782
   76.90   4000.00  0.219219  0.780781
   77.00   4000.00  0.220220  0.779780
   77.10   4000.00  0.221221  0.778779
   77.20   4000.00  0.222222  0.777778
   77.30   4000.00  0.222222  0.777778
   77.40   4000.00  0.223223  0.776777
   77.50   4000.00  0.224224  0.775776
   77.60   4000.00  0.225225  0.774775
   77.70   4000.00  0.226226  0.773774
   77.80   4000.00  0.227227  0.772773
   77.90   4000.00  0.227227  0.772773
   78.00   4000.00  0.228228  0.771772
   78.10   4000.00  0.229229  0.770771
   78.20   4000.00  0.230230  0.769770
   78.30   4000.00  0.231231  0.768769
   78.40   4000.00  0.231231  0.768769
   78.50   4000.00  0.232232  0.767768
   78.60   4000.00  0.233233  0.766767
   78.70   4000.00  0.234234  0.765766
   78.80   4000.00  0.235235  0.764765
   78.90   4000.00  0.236236  0.763764
   79.00   4000.00  0.236236  0.763764
   79.10   4000.00  0.237237  0.762763
   79.20   4000.00  0.238238  0.761762
   79.30   4000.00  0.239239  0.760761
   79.40   4000.00  0.240240  0.759760
   79.50   4000.00  0.241241  0.758759
   79.60   4000.00  0.242242  0.757758
   79.70   4000.00  0.242242  0.757758
   79.80   4000.00  0.243243  0.756757
   79.90   4000.00  0.244244  0.755756
   80.00   4000.00  0.245245  0.754755
   80.10   4000.00  0.246246  0.753754
   80.20   4000.00  0.247247  0.752753
   80.30   4000.00  0.248248  0.751752
   80.40   4000.00  0.249249  0.750751
   80.50   4000.00  0.249249  0.750751
   80.60   4000.00  0.250250  0.749750
   80.70   4000.00  0.251251  0.748749
   80.80   4000.00  0.252252  0.747748
   80.90   4000.00  0.253253  0.746747
   81.00   4000.00  0.254254  0.745746
   81.10   4000.00  0.255255  0.744745
   81.20   4000.00  0.256256  0.743744
   81.30   4000.00  0.257257  0.742743
   81.40   4000.00  0.258258  0.741742
   81.50   4000.00  0.258258  0.741742
   81.60   4000.00  0.259259  0.740741
   81.70   4000.00  0.260260  0.739740
   81.80   4000.00  0.261261  0.738739
   81.90   4000.00  0.262262  0.737738
   82.00   4000.00  0.263263  0.736737
   82.10   4000.00  0.264264  0.735736
   82.20   4000.00  0.265265  0.734735
   82.30   4000.00  0.266266  0.733734
   82.40   4000.00  0.267267  0.732733
   82.50   4000.00  0.268268  0.731732
   82.60   4000.00  0.269269  0.730731
   82.70   4000.00  0.270270  0.729730
   82.80   4000.00  0.271271  0.728729
   82.90   4000.00  0.272272  0.727728
   83.00   4000.00  0.273273  0.726727
   83.10   4000.00  0.273273  0.726727
   83.20   4000.00  0.274274  0.725726
   83.30   4000.00  0.275275  0.724725
   83.40   4000.00  0.276276  0.723724
   83.50   4000.00  0.277277  0.722723
   83.60   4000.00  0.278278  0.721722
   83.70   4000.00  0.279279  0.720721
   83.80   4000.00  0.280280  0.719720
   83.90   4000.00  0.281281  0.718719
   84.00   4000.00  0.282282  0.717718
   84.10   4000.00  0.283283  0.716717
   84.20   4000.00  0.284284  0.715716
   84.30   4000.00  0.285285  0.714715
   84.40   4000.00  0.286286  0.713714
   84.50   4000.00  0.287287  0.712713
   84.60   4000.00  0.288288  0.711712
   84.70   4000.00  0.289289  0.710711
   84.80   4000.00  0.290290  0.709710
   84.90   4000.00  0.291291  0.708709
   85.00   4000.00  0.292292  0.707708
   85.10   4000.00  0.293293  0.706707
   85.20   4000.00  0.294294  0.705706
   85.30   4000.00  0.295295  0.704705
   85.40   4000.00  0.296296  0.703704
   85.50   4000.00  0.297297  0.702703
   85.60   4000.00  0.298298  0.701702
   85.70   4000.00  0.299299  0.700701
   85.80   4000.00  0.300300  0.699700
   85.90   4000.00  0.301301  0.698699
   86.00   4000.00  0.302302  0.697698
   86.10   4000.00  0.303303  0.696697
   86.20   4000.00  0.304304  0.695696
   86.30   4000.00  0.305305  0.694695
   86.40   4000.00  0.307307  0.692693
   86.50   4000.00  0.308308  0.691692
   86.60   4000.00  0.309309  0.690691
   86.70   4000.00  0.310310  0.689690
   86.80   4000.00  0.311311  0.688689
   86.90   4000.00  0.312312  0.687688
   87.00   4000.00  0.313313  0.686687
   87.10   4000.00  0.314314  0.685686
   87.20   4000.00  0.315315  0.684685
   87.30   4000.00  0.316316  0.683684
   87.40   4000.00  0.317317  0.682683
   87.50   4000.00  0.318318  0.681682
   87.60   4000.00  0.319319  0.680681
   87.70   4000.00  0.320320  0.679680
   87.80   4000.00  0.321321  0.678679
   87.90   4000.00  0.323323  0.676677
   88.00   4000.00  0.324324  0.675676
   88.10   4000.00  0.325325  0.674675
   88.20   4000.00  0.326326  0.673674
   88.30   4000.00  0.327327  0.672673
   88.40   4000.00  0.328328  0.671672
   88.50   4000.00  0.329329  0.670671
   88.60   4000.00  0.330330  0.669670
   88.70   4000.00  0.331331  0.668669
   88.80   4000.00  0.332332  0.667668
   88.90   4000.00  0.334334  0.665666
   89.00   4000.00  0.335335  0.664665
   89.10   4000.00  0.336336  0.663664
   89.20   4000.00  0.337337  0.662663
   89.30   4000.00  0.338338  0.661662
   89.40   4000.00  0.339339  0.660661
   89.50   4000.00  0.340340  0.659660
   89.60   4000.00  0.341341  0.658659
   89.70   4000.00  0.342342  0.657658
   89.80   4000.00  0.344344  0.655656
   89.90   4000.00  0.345345  0.654655
   90.00   4000.00  0.346346  0.653654
   90.10   4000.00  0.347347  0.652653
   90.20   4000.00  0.348348  0.651652
   90.30   4000.00  0.349349  0.650651
   90.40   4000.00  0.350350  0.649650
   90.50   4000.00  0.352352  0.647648
   90.60   4000.00  0.353353  0.646647
   90.70   4000.00  0.354354  0.645646
   90.80   4000.00  0.355355  0.644645
   90.90   4000.00  0.356356  0.643644
   91.00   4000.00  0.357357  0.642643
   91.10   4000.00  0.359359  0.640641
   91.20   4000.00  0.360360  0.639640
   91.30   4000.00  0.361361  0.638639
   91.40   4000.00  0.362362  0.637638
   91.50   4000.00  0.363363  0.636637
   91.60   4000.00  0.364364  0.635636
   91.70   4000.00  0.366366  0.633634
   91.80   4000.00  0.367367  0.632633
   91.90   4000.00  0.368368  0.631632
   92.00   4000.00  0.369369  0.630631
   92.10   4000.00  0.370370  0.629630
   92.20   4000.00  0.372372  0.627628
   92.30   4000.00  0.373373  0.626627
   92.40   4000.00  0.374374  0.625626
   92.50   4000.00  0.375375  0.624625
   92.60   4000.00  0.376376  0.623624
   92.70   4000.00  0.377377  0.622623
   92.80   4000.00  0.379379  0.620621
   92.90   4000.00  0.380380  0.619620
   93.00   4000.00  0.381381  0.618619
   93.10   4000.00  0.382382  0.617618
   93.20   4000.00  0.384384  0.615616
   93.30   4000.00  0.385385  0.614615
   93.40   4000.00  0.386386  0.613614
   93.50   4000.00  0.387387  0.612613
   93.60   4000.00  0.388388  0.611612
   93.70   4000.00  0.390390  0.609610
   93.80   4000.00  0.391391  0.608609
   93.90   4000.00  0.392392  0.607608
   94.00   4000.00  0.393393  0.606607
   94.10   4000.00  0.395395  0.604605
   94.20   4000.00  0.396396  0.603604
   94.30   4000.00  0.397397  0.602603
   94.40   4000.00  0.398398  0.601602
   94.50   4000.00  0.399399  0.600601
   94.60   4000.00  0.401401  0.598599
   94.70   4000.00  0.402402  0.597598
   94.80   4000.00  0.403403  0.596597
   94.90   4000.00  0.404404  0.595596
   95.00   4000.00  0.406406  0.593594
   95.10   4000.00  0.407407  0.592593
   95.20   4000.00  0.408408  0.591592
   95.30   4000.00  0.409409  0.590591
   95.40   4000.00  0.411411  0.588589
   95.50   4000.00  0.412412  0.587588
   95.60   4000.00  0.413413  0.586587
   95.70   4000.00  0.414414  0.585586
   95.80   4000.00  0.416416  0.583584
   95.90   4000.00  0.417417  0.582583
   96.00   4000.00  0.418418  0.581582
   96.10   4000.00  0.420420  0.579580
   96.20   4000.00  0.421421  0.578579
   96.30   4000.00  0.422422  0.577578
   96.40   4000.00  0.423423  0.576577
   96.50   4000.00  0.425425  0.574575
   96.60   4000.00  0.426426  0.573574
   96.70   4000.00  0.427427  0.572573
   96.80   4000.00  0.428428  0.571572
   96.90   4000.00  0.430430  0.569570
   97.00   4000.00  0.431431  0.568569
   97.10   4000.00  0.432432  0.567568
   97.20   4000.00  0.434434  0.565566
   97.30   4000.00  0.435435  0.564565
   97.40   4000.00  0.436436  0.563564
   97.50   4000.00  0.437437  0.562563
   97.60   4000.00  0.439439  0.560561
   97.70   4000.00  0.440440  0.559560
   97.80   4000.00  0.441441  0.558559
   97.90   4000.00  0.443443  0.556557
   98.00   4000.00  0.444444  0.555556
   98.10   4000.00  0.445445  0.554555
   98.20   4000.00  0.447447  0.552553
   98.30   4000.00  0.448448  0.551552
   98.40   4000.00  0.449449  0.550551
   98.50   4000.00  0.450450  0.549550
   98.60   4000.00  0.452452  0.547548
   98.70   4000.00  0.453453  0.546547
   98.80   4000.00  0.454454  0.545546
   98.90   4000.00  0.456456  0.543544
   99.00   4000.00  0.457457  0.542543
   99.10   4000.00  0.458458  0.541542
   99.20   4000.00  0.460460  0.539540
   99.30   4000.00  0.461461  0.538539
   99.40   4000.00  0.462462  0.537538
   99.50   4000.00  0.464464  0.535536
   99.60   4000.00  0.465465  0.534535
   99.70   4000.00  0.466466  0.533534
   99.80   4000.00  0.468468  0.531532
   99.90   4000.00  0.469469  0.530531
  100.00   4000.00  0.470470  0.529530
  100.10   4000.00  0.472472  0.527528
  100.20   4000.00  0.473473  0.526527
  100.30   4000.00  0.474474  0.525526
  100.40   4000.00  0.476476  0.523524
  100.50   4000.00  0.477477  0.522523
  100.60   4000.00  0.478478  0.521522
  100.70   4000.00  0.480480  0.519520
  100.80   4000.00  0.481481  0.518519
  100.90   4000.00  0.482482  0.517518
  101.00   4000.00  0.484484  0.515516
  101.10   4000.00  0.485485  0.514515
  101.20   4000.00  0.486486  0.513514
  101.30   4000.00  0.488488  0.511512
  101.40   4000.00  0.489489  0.510511
  101.50   4000.00  0.490490  0.509510
  101.60   4000.00  0.492492  0.507508
  101.70   4000.00  0.493493  0.506507
  101.80   4000.00  0.494494  0.505506
  101.90   4000.00  0.496496  0.503504
  102.00   4000.00  0.497497  0.502503
  102.10   4000.00  0.498498  0.501502
  102.20   4000.00  0.500501  0.499499
  102.30   4000.00  0.501502  0.498498
  102.40   4000.00  0.502503  0.497497
  102.50   4000.00  0.504505  0.495495
  102.60   4000.00  0.505506  0.494494
  102.70   4000.00  0.506507  0.493493
  102.80   4000.00  0.508509  0.491491
  102.90   4000.00  0.509510  0.490490
  103.00   4000.00  0.510511  0.489489
  103.10   4000.00  0.512513  0.487487
  103.20   4000.00  0.513514  0.486486
  103.30   4000.00  0.514515  0.485485
  103.40   4000.00  0.516517  0.483483
  103.50   4000.00  0.517518  0.482482
  103.60   4000.00  0.519520  0.480480
  103.70   4000.00  0.520521  0.479479
  103.80   4000.00  0.521522  0.478478
  103.90   4000.00  0.523524  0.476476
  104.00   4000.00  0.524525  0.475475
  104.10   4000.00  0.525526  0.474474
  104.20   4000.00  0.527528  0.472472
  104.30   4000.00  0.528529  0.471471
  104.40   4000.00  0.529530  0.470470
  104.50   4000.00  0.531532  0.468468
  104.60   4000.00  0.532533  0.467467
  104.70   4000.00  0.533534  0.466466
  104.80   4000.00  0.535536  0.464464
  104.90   4000.00  0.536537  0.463463
  105.00   4000.00  0.538539  0.461461
  105.10   4000.00  0.539540  0.460460
  105.20   4000.00  0.540541  0.459459
  105.30   4000.00  0.542543  0.457457
  105.40   4000.00  0.543544  0.456456
  105.50   4000.00  0.544545  0.455455
  105.60   4000.00  0.546547  0.453453
  105.70   4000.00  0.547548  0.452452
  105.80   4000.00  0.548549  0.451451
  105.90   4000.00  0.550551  0.449449
  106.00   4000.00  0.551552  0.448448
  106.10   4000.00  0.553554  0.446446
  106.20   4000.00  0.554555  0.445445
  106.30   4000.00  0.555556  0.444444
  106.40   4000.00  0.557558  0.442442
  106.50   4000.00  0.558559  0.441441
  106.60   4000.00  0.559560  0.440440
  106.70   4000.00  0.561562  0.438438
  106.80   4000.00  0.562563  0.437437
  106.90   4000.00  0.563564  0.436436
  107.00   4000.00  0.565566  0.434434
  107.10   4000.00  0.566567  0.433433
  107.20   4000.00  0.567568  0.432432
  107.30   4000.00  0.569570  0.430430
  107.40   4000.00  0.570571  0.429429
  107.50   4000.00  0.572573  0.427427
  107.60   4000.00  0.573574  0.426426
  107.70   4000.00  0.574575  0.425425
  107.80   4000.00  0.576577  0.423423
  107.90   4000.00  0.577578  0.422422
  108.00   4000.00  0.578579  0.421421
  108.10   4000.00  0.580581  0.419419
  108.20   4000.00  0.581582  0.418418
  108.30   4000.00  0.582583  0.417417
  108.40   4000.00  0.584585  0.415415
  108.50   4000.00  0.585586  0.414414
  108.60   4000.00  0.586587  0.413413
  108.70   4000.00  0.588589  0.411411
  108.80   4000.00  0.589590  0.410410
  108.90   4000.00  0.590591  0.409409
  109.00   4000.00  0.592593  0.407407
  109.10   4000.00  0.593594  0.406406
  109.20   4000.00  0.594595  0.405405
  109.30   4000.00  0.596597  0.403403
  109.40   4000.00  0.597598  0.402402
  109.50   4000.00  0.599600  0.400400
  109.60   4000.00  0.600601  0.399399
  109.70   4000.00  0.601602  0.398398
  109.80   4000.00  0.603604  0.396396
  109.90   4000.00  0.604605  0.395395
  110.00   4000.00  0.605606  0.394394
  110.10   4000.00  0.607608  0.392392
  110.20   4000.00  0.608609  0.391391
  110.30   4000.00  0.609610  0.390390
  110.40   4000.00  0.611612  0.388388
  110.50   4000.00  0.612613  0.387387
  110.60   4000.00  0.613614  0.386386
  110.70   4000.00  0.615616  0.384384
  110.80   4000.00  0.616617  0.383383
  110.90   4000.00  0.617618  0.382382
  111.00   4000.00  0.619620  0.380380
  111.10   4000.00  0.620621  0.379379
  111.20   4000.00  0.621622  0.378378
  111.30   4000.00  0.623624  0.376376
  111.40   4000.00  0.624625  0.375375
  111.50   4000.00  0.625626  0.374374
  111.60   4000.00  0.626627  0.373373
  111.70   4000.00  0.628629  0.371371
  111.80   4000.00  0.629630  0.370370
  111.90   4000.00  0.630631  0.369369
  112.00   4000.00  0.632633  0.367367
  112.10   4000.00  0.633634  0.366366
  112.20   4000.00  0.634635  0.365365
  112.30   4000.00  0.636637  0.363363
  112.40   4000.00  0.637638  0.362362
  112.50   4000.00  0.638639  0.361361
  112.60   4000.00  0.640641  0.359359
  112.70   4000.00  0.641642  0.358358
  112.80   4000.00  0.642643  0.357357
  112.90   4000.00  0.644645  0.355355
  113.00   4000.00  0.645646  0.354354
  113.10   4000.00  0.646647  0.353353
  113.20   4000.00  0.647648  0.352352
  113.30   4000.00  0.649650  0.350350
  113.40   4000.00  0.650651  0.349349
  113.50   4000.00  0.651652  0.348348
  113.60   4000.00  0.653654  0.346346
  113.70   4000.00  0.654655  0.345345
  113.80   4000.00  0.655656  0.344344
  113.90   4000.00  0.657658  0.342342
  114.00   4000.00  0.658659  0.341341
  114.10   4000.00  0.659660  0.340340
  114.20   4000.00  0.660661  0.339339
  114.30   4000.00  0.662663  0.337337
  114.40   4000.00  0.663664  0.336336
  114.50   4000.00  0.664665  0.335335
  114.60   4000.00  0.665666  0.334334
  114.70   4000.00  0.667668  0.332332
  114.80   4000.00  0.668669  0.331331
  114.90   4000.00  0.669670  0.330330
  115.00   4000.00  0.671672  0.328328
  115.10   4000.00  0.672673  0.327327
  115.20   4000.00  0.673674  0.326326
  115.30   4000.00  0.674675  0.325325
  115.40   4000.00  0.676677  0.323323
  115.50   4000.00  0.677678  0.322322
  115.60   4000.00  0.678679  0.321321
  115.70   4000.00  0.679680  0.320320
  115.80   4000.00  0.681682  0.318318
  115.90   4000.00  0.682683  0.317317
  116.00   4000.00  0.683684  0.316316
  116.10   4000.00  0.684685  0.315315
  116.20   4000.00  0.686687  0.313313
  116.30   4000.00  0.687688  0.312312
  116.40   4000.00  0.688689  0.311311
  116.50   4000.00  0.689690  0.310310
  116.60   4000.00  0.691692  0.308308
  116.70   4000.00  0.692693  0.307307
  116.80   4000.00  0.693694  0.306306
  116.90   4000.00  0.694695  0.305305
  117.00   4000.00  0.695696  0.304304
  117.10   4000.00  0.697698  0.302302
  117.20   4000.00  0.698699  0.301301
  117.30   4000.00  0.699700  0.300300
  117.40   4000.00  0.700701  0.299299
  117.50   4000.00  0.702703  0.297297
  117.60   4000.00  0.703704  0.296296
  117.70   4000.00  0.704705  0.295295
  117.80   4000.00  0.705706  0.294294
  117.90   4000.00  0.706707  0.293293
  118.00   4000.00  0.708709  0.291291
  118.10   4000.00  0.709710  0.290290
  118.20   4000.00  0.710711  0.289289
  118.30   4000.00  0.711712  0.288288
  118.40   4000.00  0.712713  0.287287
  118.50   4000.00  0.714715  0.285285
  118.60   4000.00  0.715716  0.284284
  118.70   4000.00  0.716717  0.283283
  118.80   4000.00  0.717718  0.282282
  118.90   4000.00  0.718719  0.281281
  119.00   4000.00  0.720721  0.279279
  119.10   4000.00  0.721722  0.278278
  119.20   4000.00  0.722723  0.277277
  119.30   4000.00  0.723724  0.276276
  119.40   4000.00  0.724725  0.275275
  119.50   4000.00  0.725726  0.274274
  119.60   4000.00  0.727728  0.272272
  119.70   4000.00  0.728729  0.271271
  119.80   4000.00  0.729730  0.270270
  119.90   4000.00  0.730731  0.269269
  120.00   4000.00  0.731732  0.268268
  120.10   4000.00  0.732733  0.267267
  120.20   4000.00  0.734735  0.265265
  120.30   4000.00  0.735736  0.264264
  120.40   4000.00  0.736737  0.263263
  120.50   4000.00  0.737738  0.262262
  120.60   4000.00  0.738739  0.261261
  120.70   4000.00  0.739740  0.260260
  120.80   4000.00  0.740741  0.259259
  120.90   4000.00  0.741742  0.258258
  121.00   4000.00  0.743744  0.256256
  121.10   4000.00  0.744745  0.255255
  121.20   4000.00  0.745746  0.254254
  121.30   4000.00  0.746747  0.253253
  121.40   4000.00  0.747748  0.252252
  121.50   4000.00  0.748749  0.251251
  121.60   4000.00  0.749750  0.250250
  121.70   4000.00  0.750751  0.249249
  121.80   4000.00  0.752753  0.247247
  121.90   4000.00  0.753754  0.246246
  122.00   4000.00  0.754755  0.245245
  122.10   4000.00  0.755756  0.244244
  122.20   4000.00  0.756757  0.243243
  122.30   4000.00  0.757758  0.242242
  122.40   4000.00  0.758759  0.241241
  122.50   4000.00  0.759760  0.240240
  122.60   4000.00  0.760761  0.239239
  122.70   4000.00  0.761762  0.238238
  122.80   4000.00  0.762763  0.237237
  122.90   4000.00  0.764765  0.235235
  123.00   4000.00  0.765766  0.234234
  123.10   4000.00  0.766767  0.233233
  123.20   4000.00  0.767768  0.232232
  123.30   4000.00  0.768769  0.231231
  123.40   4000.00  0.769770  0.230230
  123.50   4000.00  0.770771  0.229229
  123.60   4000.00  0.771772  0.228228
  123.70   4000.00  0.772773  0.227227
  123.80   4000.00  0.773774  0.226226
  123.90   4000.00  0.774775  0.225225
  124.00   4000.00  0.775776  0.224224
  124.10   4000.00  0.776777  0.223223
  124.20   4000.00  0.777778  0.222222
  124.30   4000.00  0.778779  0.221221
  124.40   4000.00  0.779780  0.220220
  124.50   4000.00  0.780781  0.219219
  124.60   4000.00  0.781782  0.218218
  124.70   4000.00  0.782783  0.217217
  124.80   4000.00  0.783784  0.216216
  124.90   4000.00  0.784785  0.215215
  125.00   4000.00  0.785786  0.214214
  125.10   4000.00  0.786787  0.213213
  125.20   4000.00  0.787788  0.212212
  125.30   4000.00  0.788789  0.211211
  125.40   4000.00  0.789790  0.210210
  125.50   4000.00  0.790791  0.209209
  125.60   4000.00  0.791792  0.208208
  125.70   4000.00  0.792793  0.207207
  125.80   4000.00  0.793794  0.206206
  125.90   4000.00  0.794795  0.205205
  126.00   4000.00  0.795796  0.204204
  126.10   4000.00  0.796797  0.203203
  126.20   4000.00  0.797798  0.202202
  126.30   4000.00  0.798799  0.201201
  126.40   4000.00  0.799800  0.200200
  126.50   4000.00  0.800801  0.199199
  126.60   4000.00  0.801802  0.198198
  126.70   4000.00  0.802803  0.197197
  126.80   4000.00  0.803804  0.196196
  126.90   4000.00  0.804805  0.195195
  127.00   4000.00  0.805806  0.194194
  127.10   4000.00  0.806807  0.193193
  127.20   4000.00  0.807808  0.192192
  127.30   4000.00  0.808809  0.191191
  127.40   4000.00  0.809810  0.190190
  127.50   4000.00  0.810811  0.189189
  127.60   4000.00  0.811812  0.188188
  127.70   4000.00  0.812813  0.187187
  127.80   4000.00  0.812813  0.187187
  127.90   4000.00  0.813814  0.186186
  128.00   4000.00  0.814815  0.185185
  128.10   4000.00  0.815816  0.184184
  128.20   4000.00  0.816817  0.183183
  128.30   4000.00  0.817818  0.182182
  128.40   4000.00  0.818819  0.181181
  128.50   4000.00  0.819820  0.180180
  128.60   4000.00  0.820821  0.179179
  128.70   4000.00  0.821822  0.178178
  128.80   4000.00  0.822823  0.177177
  128.90   4000.00  0.822823  0.177177
  129.00   4000.00  0.823824  0.176176
  129.10   4000.00  0.824825  0.175175
  129.20   4000.00  0.825826  0.174174
  129.30   4000.00  0.826827  0.173173
  129.40   4000.00  0.827828  0.172172
  129.50   4000.00  0.828829  0.171171
  129.60   4000.00  0.829830  0.170170
  129.70   4000.00  0.829830  0.170170
  129.80   4000.00  0.830831  0.169169
  129.90   4000.00  0.831832  0.168168
  130.00   4000.00  0.832833  0.167167
  130.10   4000.00  0.833834  0.166166
  130.20   4000.00  0.834835  0.165165
  130.30   4000.00  0.835836  0.164164
  130.40   4000.00  0.835836  0.164164
  130.50   4000.00  0.836837  0.163163
  130.60   4000.00  0.837838  0.162162
  130.70   4000.00  0.838839  0.161161
  130.80   4000.00  0.839840  0.160160
  130.90   4000.00  0.840841  0.159159
  131.00   4000.00  0.840841  0.159159
  131.10   4000.00  0.841842  0.158158
  131.20   4000.00  0.842843  0.157157
  131.30   4000.00  0.843844  0.156156
  131.40   4000.00  0.844845  0.155155
  131.50   4000.00  0.845846  0.154154
  131.60   4000.00  0.845846  0.154154
  131.70   4000.00  0.846847  0.153153
  131.80   4000.00  0.847848  0.152152
  131.90   4000.00  0.848849  0.151151
  132.00   4000.00  0.849850  0.150150
  132.10   4000.00  0.849850  0.150150
  132.20   4000.00  0.850851  0.149149
  132.30   4000.00  0.851852  0.148148
  132.40   4000.00  0.852853  0.147147
  132.50   4000.00  0.852853  0.147147
  132.60   4000.00  0.853854  0.146146
  132.70   4000.00  0.854855  0.145145
  132.80   4000.00  0.855856  0.144144
  132.90   4000.00  0.856857  0.143143
  133.00   4000.00  0.856857  0.143143
  133.10   4000.00  0.857858  0.142142
  133.20   4000.00  0.858859  0.141141
  133.30   4000.00  0.859860  0.140140
  133.40   4000.00  0.859860  0.140140
  133.50   4000.00  0.860861  0.139139
  133.60   4000.00  0.861862  0.138138
  133.70   4000.00  0.862863  0.137137
  133.80   4000.00  0.862863  0.137137
  133.90   4000.00  0.863864  0.136136
  134.00   4000.00  0.864865  0.135135
  134.10   4000.00  0.865866  0.134134
  134.20   4000.00  0.865866  0.134134
  134.30   4000.00  0.866867  0.133133
  134.40   4000.00  0.867868  0.132132
  134.50   4000.00  0.867868  0.132132
  134.60   4000.00  0.868869  0.131131
  134.70   4000.00  0.869870  0.130130
  134.80   4000.00  0.870871  0.129129
  134.90   4000.00  0.870871  0.129129
  135.00   4000.00  0.871872  0.128128
  135.10   4000.00  0.872873  0.127127
  135.20   4000.00  0.872873  0.127127
  135.30   4000.00  0.873874  0.126126
  135.40   4000.00  0.874875  0.125125
  135.50   4000.00  0.874875  0.125125
  135.60   4000.00  0.875876  0.124124
  135.70   4000.00  0.876877  0.123123
  135.80   4000.00  0.876877  0.123123
  135.90   4000.00  0.877878  0.122122
  136.00   4000.00  0.878879  0.121121
  136.10   4000.00  0.878879  0.121121
  136.20   4000.00  0.879880  0.120120
  136.30   4000.00  0.880881  0.119119
  136.40   4000.00  0.880881  0.119119
  136.50   4000.00  0.881882  0.118118
  136.60   4000.00  0.882883  0.117117
  136.70   4000.00  0.882883  0.117117
  136.80   4000.00  0.883884  0.116116
  136.90   4000.00  0.884885  0.115115
  137.00   4000.00  0.884885  0.115115
  137.10   4000.00  0.885886  0.114114
  137.20   4000.00  0.886887  0.113113
  137.30   4000.00  0.886887  0.113113
  137.40   4000.00  0.887888  0.112112
  137.50   4000.00  0.888889  0.111111
  137.60   4000.00  0.888889  0.111111
  137.70   4000.00  0.889890  0.110110
  137.80   4000.00  0.889890  0.110110
  137.90   4000.00  0.890891  0.109109
  138.00   4000.00  0.891892  0.108108
  138.10   4000.00  0.891892  0.108108
  138.20   4000.00  0.892893  0.107107
  138.30   4000.00  0.893894  0.106106
  138.40   4000.00  0.893894  0.106106
  138.50   4000.00  0.894895  0.105105
  138.60   4000.00  0.894895  0.105105
  138.70   4000.00  0.895896  0.104104
  138.80   4000.00  0.896897  0.103103
  138.90   4000.00  0.896897  0.103103
  139.00   4000.00  0.897898  0.102102
  139.10   4000.00  0.897898  0.102102
  139.20   4000.00  0.898899  0.101101
  139.30   4000.00  0.898899  0.101101
  139.40   4000.00  0.899900  0.100100
  139.50   4000.00  0.900901  0.099099
  139.60   4000.00  0.900901  0.099099
  139.70   4000.00  0.901902  0.098098
  139.80   4000.00  0.901902  0.098098
  139.90   4000.00  0.902903  0.097097
  140.00   4000.00  0.902903  0.097097
